M0: 136918028, M1: 136911557.78, M2: 135907214.484, Sn: 4.02556
abv: 1
k-shell BE: 34.5644
Number of charge states: 1
CHARGE		WEIGHT
2		1.0
Number of beta branches: 118
EXCITATION INTENSITY
0		45.25	1
601.05e-3		0.4	2
986.2e-3		0.05	3
1218e-3		8.9	4
1220.07e-3		0.9	5
1302.73e-3		1.9	6
1512.16e-3		1.1	8
1534.32e-3		2.3	9
1668.13e-3		0.5	11
1715.55e-3		0.52	12
1752.56e-3		0.11	13
1766.17e-3		0.86	14
1796.08e-3		1	15
1808.75e-3		0.45	16
1820.56e-3		0.23	17
1841.49e-3		0.08	18
1849.69e-3		0.49	19
1873.13e-3		1.33	20
1879.26e-3		0.49	21
1898.34e-3		0.08	22
1926.44e-3		0.15	23
1936.05e-3		0.75	25
1991.18e-3		0.94	26
1997.06e-3		1.08	27
2010.8e-3		0.15	28
2013.05e-3		0.12	29
2029.86e-3		1.9	30
2087.97e-3		0.26	31
2089.67e-3		0.22	32
2099.97e-3		0.86	33
2113.99e-3		0.11	34
2144.32e-3		0.19	35
2147e-3		0.27	36
2155.11e-3		0.44	37
2191.19e-3		0.38	38
2196.15e-3		0.34	39
2229.97e-3		0.1	41
2237.76e-3		0.04	42
2244.09e-3		2.28	43
2281.59e-3		0.12	44
2345.65e-3		0.35	45
2356.28e-3		0.42	46
2368.32e-3		0.29	47
2380.3e-3		0.09	48
2422.7e-3		0.21	49
2444.01e-3		0.24	50
2474.84e-3		0.19	52
2566.93e-3		0.09	54
2571.09e-3		0.14	55
2629.7e-3		0.28	57
2671.59e-3		0.34	58
2676.3e-3		0.27	59
2726.14e-3		0.1	60
2829.84e-3		0.08	61
2844.5e-3		0.22	62
2909.8e-3		0.07	63
2922.63e-3		0.09	64
2960.34e-3		0.01	65
2983.54e-3		0.073	67
2993.91e-3		0.07	68
3022.91e-3		0.56	69
3117.61e-3		0.14	72
3253.97e-3		0.12	74
3263.1e-3		0.11	75
3276.72e-3		0.47	76
3287.62e-3		0.07	77
3353.04e-3		0.14	80
3417.07e-3		0.04	81
3458.62e-3		0.35	82
3500.65e-3		0.08	83
3540.61e-3		0.06	84
3544.2e-3		0.05	85
3570.13e-3		0.57	86
3571.69e-3		0.16	87
3670.59e-3		0.059	88
3729.66e-3		0.47	89
3795.43e-3		1.79	90
3800.68e-3		0.14	91
3862.47e-3		0.41	92
3866.23e-3		0.3	93
3911.27e-3		0.53	94
3986.92e-3		1.23	95
3996.28e-3		1.19	96
4016.18e-3		0.021	97
4025.73e-3		0.63	98
4028.92e-3		0.48	99
4038.96e-3		0.05	100
4064.6e-3		0.008	101
4083.87e-3		0.083	102
4103.3e-3		0.019	103
4105.0e-3		0.031	104
4129.99e-3		0.064	105
4140.98e-3		0.069	106
4160.94e-3		0.32	108
4173.11e-3		0.063	109
4189.01e-3		0.018	111
4211.6e-3		0.033	113
4260.4e-3		0.009	114
4270.3e-3		0.014	115
4276.53e-3		0.3	116
4288.1e-3		0.007	118
4318.2e-3		0.012	120
4332.78e-3		0.114	121
4402.78e-3		0.22	128
4424.7e-3		0.008	130
4477.8e-3		0.019	132
4501.9e-3		0.0059	134
4543.3e-3		0.0074	137
4559.9e-3		0.014	139
4680.6e-3		0.0049	143
4685.8e-3		0.003	144
4758e-3		0.01	148
4784.7e-3		0.01	150
4802.5e-3		0.0034	152
4899e-3		0.005	156
5132.2e-3		0.0021	164
5148.8e-3		0.0033	165
5170.2e-3		0.0058	167
Number of neutron states: 159
ENERGY INTENSITY
0.0346811	683.985023
0.0594006	2638.927751
0.0640244	967.3128314
0.0686401	1413.605667
0.0710283	976.0518471
0.075644	2334.412892
0.0800749	2121.612843
0.0843933	1625.519173
0.0887198	1208.836214
0.0930382	764.3468677
0.0951292	167.2229157
0.1084621	348.3686777
0.1308818	1555.099893
0.146619	2025.977227
0.1622839	2186.743282
0.1845028	1067.793674
0.2068662	1197.700959
0.2226597	2379.565582
0.2317465	2251.22017
0.2386058	2402.161842
0.2409859	1064.503533
0.243374	1312.711823
0.2457543	1539.424273
0.2526055	5095.946539
0.2572212	3881.160733
0.2638475	5214.793404
0.2659304	1425.88752
0.2702569	2542.053246
0.2723477	1025.598451
0.2766663	1676.152738
0.2809927	1259.457871
0.292058	2386.691155
0.3011528	2893.611572
0.3057685	1916.523569
0.3059131	74.07194286
0.3193746	7331.99309
0.3214655	935.968176
0.3393338	7807.433967
0.3461851	3658.67162
0.3463296	91.1862915
0.3487179	1751.780793
0.3510981	1976.829648
0.3534863	2228.114894
0.3558664	2451.538225
0.3560191	172.9238018
0.3583992	2926.304151
0.3607873	3180.77057
0.3631676	3401.381338
0.3655558	3657.311213
0.3657004	235.4731036
0.3680886	4133.69287
0.3724472	7215.363736
0.3725998	268.2491308
0.376621	5854.829803
0.3767737	237.9703217
0.3785593	2243.676217
0.378712	207.5140624
0.3806502	2247.370229
0.382733	2201.724339
0.3848241	2007.609278
0.386907	1786.414598
0.3889979	1590.406285
0.3977953	5838.304777
0.4022665	2967.362405
0.4068902	3542.260033
0.4091098	1676.549113
0.4179073	5791.796296
0.4199982	1173.665452
0.4287877	4033.828519
0.4421287	5476.26571
0.4467525	2371.694982
0.4513682	2815.527612
0.4582194	4844.190974
0.4628351	3711.551298
0.4674588	4191.673956
0.469839	2388.790618
0.4743985	4846.430703
0.478725	4179.036007
0.4921623	13197.48854
0.503324	10842.75777
0.5076505	3783.139624
0.5119769	3363.329948
0.5163034	2943.675752
0.5206219	2495.996266
0.5271839	3156.152044
0.5315104	1661.202507
0.5381849	2419.030358
0.5383375	70.93691878
0.5429532	2593.619526
0.5475689	3041.606906
0.5565914	6432.335136
0.5656782	7360.311635
0.5790513	10472.61636
0.5811423	1434.60499
0.5832252	1215.725618
0.5875516	2105.466355
0.5963492	3428.09657
0.6029112	1920.430983
0.6117006	1672.410117
0.6496006	4562.30346
0.6698249	3853.853621
0.6810669	2627.664609
0.6921		1508.824971
0.7033501	2084.937158
0.7146724	3197.594148
0.7237591	3448.351764
0.7306104	3265.071971
0.7329986	1382.767322
0.7398016	4379.244848
0.7463637	3587.625406
0.7551532	3905.486877
0.7661863	3832.387004
0.7770909	1789.637871
0.779463	606.7196077
0.81294		7304.631185
0.8175556	1455.095132
0.824415	2865.272213
0.8290307	2376.03312
0.8336543	2853.778854
0.8382701	3296.961623
0.8384147	117.3158743
0.8474935	8198.165479
0.8495844	1685.215427
0.8539029	3038.371364
0.8559938	1268.227031
0.8580847	1065.357459
0.8624032	1758.130014
0.8644941	648.3690628
0.8822338	3781.06272
0.8955025	1541.426206
0.9022894	1154.527025
0.9225138	4859.706919
0.9293651	2311.336755
0.9384599	4000.1386
0.9540123	5835.443998
0.9672809	3691.864552
0.9984661	6328.072717
1.0229607	3388.751977
1.034283	2665.682684
1.0455411	3258.082882
1.0521031	1262.499927
1.0698509	1789.631359
1.0922867	3474.253181
1.1125271	4772.951469
1.126085	4513.606586
1.1351718	3907.253123
1.1440658	3537.05486
1.1528633	2645.384497
1.166148	2849.671771
1.1930308	6784.495573
1.2152497	3573.592335
1.2374685	1539.731734
1.2732132	1905.124595
1.3224353	3961.847451
1.3783561	5721.905729
1.4140364	1541.182014
1.4832821	401.0503207
1.552584	424.4949281
1.5838816	196.4206078
MOMENTUM	Fermi
0.0	120.0000
0.1	66.6923
0.2	33.7025
0.3	22.8490
0.4	17.5307
0.5	14.4302
0.6	12.4368
0.7	11.0752
0.8	10.0970
0.9	9.3699
1.0	8.8107
1.2	8.0146
1.4	7.4780
1.6	7.0909
1.8	6.7994
2.0	6.5686
2.2	6.3817
2.4	6.2278
2.6	6.0945
2.8	5.9785
3.0	5.8758
3.2	5.7838
3.4	5.7005
3.6	5.6247
3.8	5.5547
4.0	5.4899
4.5	5.3460
5.0	5.2219
5.5	5.1125
6.0	5.0145
6.5	4.9255
7.0	4.8439
7.5	4.7684
8.0	4.6980
9.0	4.5700
10.0	4.4556
11.0	4.3519
12.0	4.2568
13.0	4.1689
14.0	4.0871
16.0	3.9383
18.0	3.8055
20.0	3.6855
25.0	3.4271
30.0	3.2125
35.0	3.0293
40.0	2.8704
45.0	2.7306
50.0	2.6068